

lambda(nm), Y
740, 0.299024
740.067, 0.298968
740.133, 0.298913
740.2, 0.298858
740.267, 0.298804
740.333, 0.298751
740.4, 0.298699
740.467, 0.298648
740.533, 0.298598
740.6, 0.298549
740.667, 0.298501
740.733, 0.298453
740.8, 0.298407
740.867, 0.298362
740.933, 0.298318
741, 0.298275
741.067, 0.298233
741.133, 0.298192
741.2, 0.298152
741.267, 0.298113
741.333, 0.298076
741.4, 0.298039
741.467, 0.298004
741.533, 0.29797
741.6, 0.297937
741.667, 0.297906
741.733, 0.297875
741.8, 0.297846
741.867, 0.297818
741.933, 0.297792
742, 0.297767
742.067, 0.297743
742.133, 0.29772
742.2, 0.297699
742.267, 0.297679
742.333, 0.29766
742.4, 0.297643
742.467, 0.297627
742.533, 0.297612
742.6, 0.297599
742.667, 0.297587
742.733, 0.297577
742.8, 0.297568
742.867, 0.29756
742.933, 0.297554
743, 0.29755
743.067, 0.297546
743.133, 0.297545
743.2, 0.297544
743.267, 0.297545
743.333, 0.297548
743.4, 0.297552
743.467, 0.297557
743.533, 0.297564
743.6, 0.297573
743.667, 0.297582
743.733, 0.297594
743.8, 0.297607
743.867, 0.297621
743.933, 0.297637
744, 0.297654
744.067, 0.297672
744.133, 0.297693
744.2, 0.297714
744.267, 0.297737
744.333, 0.297762
744.4, 0.297788
744.467, 0.297815
744.533, 0.297844
744.6, 0.297874
744.667, 0.297906
744.733, 0.29794
744.8, 0.297974
744.867, 0.29801
744.933, 0.298048
745, 0.298087
745.067, 0.298127
745.133, 0.298169
745.2, 0.298212
745.267, 0.298257
745.333, 0.298303
745.4, 0.29835
745.467, 0.298399
745.533, 0.298449
745.6, 0.2985
745.667, 0.298553
745.733, 0.298607
745.8, 0.298662
745.867, 0.298719
745.933, 0.298776
746, 0.298836
746.067, 0.298896
746.133, 0.298958
746.2, 0.299021
746.267, 0.299085
746.333, 0.29915
746.4, 0.299217
746.467, 0.299284
746.533, 0.299353
746.6, 0.299423
746.667, 0.299494
746.733, 0.299567
746.8, 0.29964
746.867, 0.299714
746.933, 0.29979
747, 0.299867
747.067, 0.299944
747.133, 0.300023
747.2, 0.300103
747.267, 0.300183
747.333, 0.300265
747.4, 0.300347
747.467, 0.300431
747.533, 0.300515
747.6, 0.3006
747.667, 0.300687
747.733, 0.300774
747.8, 0.300861
747.867, 0.30095
747.933, 0.301039
748, 0.30113
748.067, 0.301221
748.133, 0.301312
748.2, 0.301405
748.267, 0.301498
748.333, 0.301592
748.4, 0.301686
748.467, 0.301781
748.533, 0.301877
748.6, 0.301973
748.667, 0.30207
748.733, 0.302167
748.8, 0.302265
748.867, 0.302363
748.933, 0.302462
749, 0.302562
749.067, 0.302661
749.133, 0.302761
749.2, 0.302862
749.267, 0.302963
749.333, 0.303064
749.4, 0.303166
749.467, 0.303268
749.533, 0.30337
749.6, 0.303472
749.667, 0.303575
749.733, 0.303678
749.8, 0.303781
749.867, 0.303884
749.933, 0.303987
750, 0.304091
750.067, 0.304195
750.133, 0.304298
750.2, 0.304402
750.267, 0.304506
750.333, 0.30461
750.4, 0.304713
750.467, 0.304817
750.533, 0.304921
750.6, 0.305025
750.667, 0.305128
750.733, 0.305232
750.8, 0.305335
750.867, 0.305438
750.933, 0.305541
751, 0.305644
751.067, 0.305747
751.133, 0.305849
751.2, 0.305951
751.267, 0.306053
751.333, 0.306155
751.4, 0.306256
751.467, 0.306357
751.533, 0.306457
751.6, 0.306557
751.667, 0.306657
751.733, 0.306756
751.8, 0.306855
751.867, 0.306954
751.933, 0.307052
752, 0.30715
752.067, 0.307247
752.133, 0.307343
752.2, 0.307439
752.267, 0.307535
752.333, 0.307629
752.4, 0.307724
752.467, 0.307817
752.533, 0.307911
752.6, 0.308003
752.667, 0.308095
752.733, 0.308186
752.8, 0.308276
752.867, 0.308366
752.933, 0.308455
753, 0.308544
753.067, 0.308631
753.133, 0.308718
753.2, 0.308804
753.267, 0.30889
753.333, 0.308974
753.4, 0.309058
753.467, 0.309141
753.533, 0.309223
753.6, 0.309305
753.667, 0.309385
753.733, 0.309465
753.8, 0.309544
753.867, 0.309622
753.933, 0.309699
754, 0.309775
754.067, 0.30985
754.133, 0.309925
754.2, 0.309998
754.267, 0.310071
754.333, 0.310142
754.4, 0.310213
754.467, 0.310283
754.533, 0.310351
754.6, 0.310419
754.667, 0.310486
754.733, 0.310552
754.8, 0.310617
754.867, 0.310681
754.933, 0.310744
755, 0.310806
755.067, 0.310867
755.133, 0.310927
755.2, 0.310986
755.267, 0.311044
755.333, 0.311101
755.4, 0.311157
755.467, 0.311213
755.533, 0.311267
755.6, 0.31132
755.667, 0.311372
755.733, 0.311423
755.8, 0.311473
755.867, 0.311522
755.933, 0.31157
756, 0.311617
756.067, 0.311663
756.133, 0.311708
756.2, 0.311753
756.267, 0.311796
756.333, 0.311838
756.4, 0.311879
756.467, 0.311919
756.533, 0.311958
756.6, 0.311997
756.667, 0.312034
756.733, 0.31207
756.8, 0.312106
756.867, 0.31214
756.933, 0.312173
757, 0.312206
757.067, 0.312238
757.133, 0.312268
757.2, 0.312298
757.267, 0.312327
757.333, 0.312355
757.4, 0.312382
757.467, 0.312408
757.533, 0.312433
757.6, 0.312458
757.667, 0.312481
757.733, 0.312504
757.8, 0.312526
757.867, 0.312547
757.933, 0.312567
758, 0.312587
758.067, 0.312605
758.133, 0.312623
758.2, 0.31264
758.267, 0.312656
758.333, 0.312672
758.4, 0.312687
758.467, 0.312701
758.533, 0.312714
758.6, 0.312726
758.667, 0.312738
758.733, 0.31275
758.8, 0.31276
758.867, 0.31277
758.933, 0.312779
759, 0.312788
759.067, 0.312796
759.133, 0.312803
759.2, 0.31281
759.267, 0.312816
759.333, 0.312822
759.4, 0.312827
759.467, 0.312832
759.533, 0.312836
759.6, 0.312839
759.667, 0.312842
759.733, 0.312845
759.8, 0.312847
759.867, 0.312849
759.933, 0.31285
760, 0.312851



