

lambda(nm), Y
740, 0.229024
740.067, 0.228861
740.133, 0.228697
740.2, 0.228534
740.267, 0.228369
740.333, 0.228204
740.4, 0.228038
740.467, 0.227872
740.533, 0.227706
740.6, 0.227539
740.667, 0.227371
740.733, 0.227204
740.8, 0.227035
740.867, 0.226867
740.933, 0.226698
741, 0.226528
741.067, 0.226359
741.133, 0.226189
741.2, 0.226019
741.267, 0.225848
741.333, 0.225678
741.4, 0.225507
741.467, 0.225336
741.533, 0.225164
741.6, 0.224993
741.667, 0.224821
741.733, 0.22465
741.8, 0.224478
741.867, 0.224306
741.933, 0.224134
742, 0.223962
742.067, 0.22379
742.133, 0.223619
742.2, 0.223447
742.267, 0.223275
742.333, 0.223103
742.4, 0.222932
742.467, 0.222761
742.533, 0.222589
742.6, 0.222418
742.667, 0.222247
742.733, 0.222077
742.8, 0.221906
742.867, 0.221736
742.933, 0.221566
743, 0.221397
743.067, 0.221228
743.133, 0.221059
743.2, 0.220891
743.267, 0.220723
743.333, 0.220555
743.4, 0.220388
743.467, 0.220221
743.533, 0.220055
743.6, 0.219889
743.667, 0.219724
743.733, 0.21956
743.8, 0.219396
743.867, 0.219232
743.933, 0.21907
744, 0.218908
744.067, 0.218746
744.133, 0.218585
744.2, 0.218425
744.267, 0.218266
744.333, 0.218108
744.4, 0.21795
744.467, 0.217793
744.533, 0.217637
744.6, 0.217482
744.667, 0.217327
744.733, 0.217174
744.8, 0.217021
744.867, 0.216869
744.933, 0.216719
745, 0.216569
745.067, 0.21642
745.133, 0.216272
745.2, 0.216125
745.267, 0.21598
745.333, 0.215835
745.4, 0.215691
745.467, 0.215549
745.533, 0.215408
745.6, 0.215267
745.667, 0.215128
745.733, 0.21499
745.8, 0.214854
745.867, 0.214718
745.933, 0.214584
746, 0.214451
746.067, 0.214319
746.133, 0.214188
746.2, 0.214059
746.267, 0.213931
746.333, 0.213804
746.4, 0.213679
746.467, 0.213555
746.533, 0.213433
746.6, 0.213311
746.667, 0.213192
746.733, 0.213073
746.8, 0.212956
746.867, 0.212841
746.933, 0.212727
747, 0.212614
747.067, 0.212503
747.133, 0.212393
747.2, 0.212285
747.267, 0.212178
747.333, 0.212073
747.4, 0.211969
747.467, 0.211867
747.533, 0.211766
747.6, 0.211667
747.667, 0.21157
747.733, 0.211474
747.8, 0.211379
747.867, 0.211286
747.933, 0.211195
748, 0.211105
748.067, 0.211017
748.133, 0.210931
748.2, 0.210846
748.267, 0.210763
748.333, 0.210681
748.4, 0.210601
748.467, 0.210523
748.533, 0.210446
748.6, 0.210371
748.667, 0.210298
748.733, 0.210226
748.8, 0.210156
748.867, 0.210087
748.933, 0.210021
749, 0.209955
749.067, 0.209892
749.133, 0.20983
749.2, 0.20977
749.267, 0.209711
749.333, 0.209654
749.4, 0.209599
749.467, 0.209545
749.533, 0.209493
749.6, 0.209442
749.667, 0.209394
749.733, 0.209346
749.8, 0.209301
749.867, 0.209257
749.933, 0.209215
750, 0.209174
750.067, 0.209135
750.133, 0.209097
750.2, 0.209061
750.267, 0.209027
750.333, 0.208994
750.4, 0.208963
750.467, 0.208933
750.533, 0.208905
750.6, 0.208878
750.667, 0.208853
750.733, 0.208829
750.8, 0.208807
750.867, 0.208787
750.933, 0.208767
751, 0.20875
751.067, 0.208734
751.133, 0.208719
751.2, 0.208705
751.267, 0.208694
751.333, 0.208683
751.4, 0.208674
751.467, 0.208666
751.533, 0.20866
751.6, 0.208655
751.667, 0.208651
751.733, 0.208649
751.8, 0.208648
751.867, 0.208648
751.933, 0.208649
752, 0.208652
752.067, 0.208656
752.133, 0.208661
752.2, 0.208667
752.267, 0.208675
752.333, 0.208684
752.4, 0.208694
752.467, 0.208705
752.533, 0.208717
752.6, 0.20873
752.667, 0.208744
752.733, 0.20876
752.8, 0.208776
752.867, 0.208793
752.933, 0.208812
753, 0.208831
753.067, 0.208851
753.133, 0.208872
753.2, 0.208895
753.267, 0.208918
753.333, 0.208941
753.4, 0.208966
753.467, 0.208992
753.533, 0.209018
753.6, 0.209045
753.667, 0.209073
753.733, 0.209102
753.8, 0.209131
753.867, 0.209161
753.933, 0.209191
754, 0.209223
754.067, 0.209255
754.133, 0.209287
754.2, 0.20932
754.267, 0.209354
754.333, 0.209388
754.4, 0.209423
754.467, 0.209458
754.533, 0.209494
754.6, 0.20953
754.667, 0.209566
754.733, 0.209603
754.8, 0.20964
754.867, 0.209678
754.933, 0.209716
755, 0.209754
755.067, 0.209793
755.133, 0.209831
755.2, 0.20987
755.267, 0.20991
755.333, 0.209949
755.4, 0.209989
755.467, 0.210028
755.533, 0.210068
755.6, 0.210108
755.667, 0.210148
755.733, 0.210188
755.8, 0.210228
755.867, 0.210268
755.933, 0.210308
756, 0.210348
756.067, 0.210388
756.133, 0.210428
756.2, 0.210468
756.267, 0.210508
756.333, 0.210547
756.4, 0.210587
756.467, 0.210626
756.533, 0.210665
756.6, 0.210704
756.667, 0.210743
756.733, 0.210781
756.8, 0.210819
756.867, 0.210857
756.933, 0.210894
757, 0.210932
757.067, 0.210968
757.133, 0.211005
757.2, 0.211041
757.267, 0.211077
757.333, 0.211112
757.4, 0.211147
757.467, 0.211181
757.533, 0.211215
757.6, 0.211249
757.667, 0.211282
757.733, 0.211314
757.8, 0.211346
757.867, 0.211377
757.933, 0.211408
758, 0.211439
758.067, 0.211468
758.133, 0.211497
758.2, 0.211526
758.267, 0.211554
758.333, 0.211581
758.4, 0.211608
758.467, 0.211634
758.533, 0.211659
758.6, 0.211684
758.667, 0.211708
758.733, 0.211731
758.8, 0.211754
758.867, 0.211776
758.933, 0.211797
759, 0.211818
759.067, 0.211837
759.133, 0.211856
759.2, 0.211875
759.267, 0.211892
759.333, 0.211909
759.4, 0.211925
759.467, 0.21194
759.533, 0.211955
759.6, 0.211969
759.667, 0.211982
759.733, 0.211994
759.8, 0.212005
759.867, 0.212016
759.933, 0.212026
760, 0.212035



