

lambda(nm), Y
740, 0.302515
740.067, 0.302414
740.133, 0.302314
740.2, 0.302214
740.267, 0.302114
740.333, 0.302014
740.4, 0.301915
740.467, 0.301816
740.533, 0.301717
740.6, 0.301619
740.667, 0.301521
740.733, 0.301424
740.8, 0.301327
740.867, 0.30123
740.933, 0.301134
741, 0.301038
741.067, 0.300943
741.133, 0.300848
741.2, 0.300754
741.267, 0.30066
741.333, 0.300567
741.4, 0.300475
741.467, 0.300382
741.533, 0.300291
741.6, 0.3002
741.667, 0.300109
741.733, 0.300019
741.8, 0.29993
741.867, 0.299842
741.933, 0.299753
742, 0.299666
742.067, 0.299579
742.133, 0.299493
742.2, 0.299408
742.267, 0.299323
742.333, 0.299239
742.4, 0.299156
742.467, 0.299073
742.533, 0.298991
742.6, 0.298909
742.667, 0.298829
742.733, 0.298749
742.8, 0.29867
742.867, 0.298592
742.933, 0.298514
743, 0.298437
743.067, 0.298361
743.133, 0.298286
743.2, 0.298211
743.267, 0.298137
743.333, 0.298064
743.4, 0.297992
743.467, 0.297921
743.533, 0.29785
743.6, 0.29778
743.667, 0.297711
743.733, 0.297643
743.8, 0.297575
743.867, 0.297509
743.933, 0.297443
744, 0.297378
744.067, 0.297314
744.133, 0.297251
744.2, 0.297188
744.267, 0.297127
744.333, 0.297066
744.4, 0.297006
744.467, 0.296947
744.533, 0.296889
744.6, 0.296831
744.667, 0.296775
744.733, 0.296719
744.8, 0.296665
744.867, 0.296611
744.933, 0.296557
745, 0.296505
745.067, 0.296454
745.133, 0.296403
745.2, 0.296354
745.267, 0.296305
745.333, 0.296257
745.4, 0.29621
745.467, 0.296164
745.533, 0.296118
745.6, 0.296074
745.667, 0.29603
745.733, 0.295987
745.8, 0.295946
745.867, 0.295905
745.933, 0.295864
746, 0.295825
746.067, 0.295787
746.133, 0.295749
746.2, 0.295712
746.267, 0.295676
746.333, 0.295641
746.4, 0.295607
746.467, 0.295574
746.533, 0.295541
746.6, 0.295509
746.667, 0.295478
746.733, 0.295448
746.8, 0.295419
746.867, 0.295391
746.933, 0.295363
747, 0.295337
747.067, 0.295311
747.133, 0.295286
747.2, 0.295262
747.267, 0.295238
747.333, 0.295216
747.4, 0.295194
747.467, 0.295173
747.533, 0.295153
747.6, 0.295134
747.667, 0.295116
747.733, 0.295098
747.8, 0.295081
747.867, 0.295065
747.933, 0.29505
748, 0.295035
748.067, 0.295022
748.133, 0.295009
748.2, 0.294996
748.267, 0.294985
748.333, 0.294975
748.4, 0.294965
748.467, 0.294956
748.533, 0.294948
748.6, 0.29494
748.667, 0.294933
748.733, 0.294927
748.8, 0.294922
748.867, 0.294918
748.933, 0.294914
749, 0.294911
749.067, 0.294909
749.133, 0.294907
749.2, 0.294906
749.267, 0.294906
749.333, 0.294907
749.4, 0.294908
749.467, 0.29491
749.533, 0.294913
749.6, 0.294917
749.667, 0.294921
749.733, 0.294926
749.8, 0.294932
749.867, 0.294938
749.933, 0.294945
750, 0.294953
750.067, 0.294961
750.133, 0.29497
750.2, 0.29498
750.267, 0.29499
750.333, 0.295001
750.4, 0.295013
750.467, 0.295025
750.533, 0.295038
750.6, 0.295052
750.667, 0.295066
750.733, 0.295081
750.8, 0.295096
750.867, 0.295113
750.933, 0.295129
751, 0.295147
751.067, 0.295165
751.133, 0.295183
751.2, 0.295203
751.267, 0.295222
751.333, 0.295243
751.4, 0.295264
751.467, 0.295285
751.533, 0.295308
751.6, 0.29533
751.667, 0.295354
751.733, 0.295378
751.8, 0.295402
751.867, 0.295427
751.933, 0.295453
752, 0.295479
752.067, 0.295505
752.133, 0.295532
752.2, 0.29556
752.267, 0.295588
752.333, 0.295617
752.4, 0.295646
752.467, 0.295676
752.533, 0.295706
752.6, 0.295737
752.667, 0.295768
752.733, 0.2958
752.8, 0.295832
752.867, 0.295864
752.933, 0.295897
753, 0.295931
753.067, 0.295965
753.133, 0.295999
753.2, 0.296034
753.267, 0.29607
753.333, 0.296105
753.4, 0.296141
753.467, 0.296178
753.533, 0.296215
753.6, 0.296252
753.667, 0.29629
753.733, 0.296328
753.8, 0.296367
753.867, 0.296406
753.933, 0.296445
754, 0.296485
754.067, 0.296525
754.133, 0.296565
754.2, 0.296606
754.267, 0.296647
754.333, 0.296688
754.4, 0.29673
754.467, 0.296772
754.533, 0.296814
754.6, 0.296857
754.667, 0.2969
754.733, 0.296943
754.8, 0.296986
754.867, 0.29703
754.933, 0.297074
755, 0.297118
755.067, 0.297163
755.133, 0.297207
755.2, 0.297252
755.267, 0.297297
755.333, 0.297343
755.4, 0.297388
755.467, 0.297434
755.533, 0.29748
755.6, 0.297527
755.667, 0.297573
755.733, 0.297619
755.8, 0.297666
755.867, 0.297713
755.933, 0.29776
756, 0.297807
756.067, 0.297854
756.133, 0.297902
756.2, 0.297949
756.267, 0.297997
756.333, 0.298045
756.4, 0.298093
756.467, 0.298141
756.533, 0.298188
756.6, 0.298237
756.667, 0.298285
756.733, 0.298333
756.8, 0.298381
756.867, 0.298429
756.933, 0.298478
757, 0.298526
757.067, 0.298574
757.133, 0.298622
757.2, 0.298671
757.267, 0.298719
757.333, 0.298767
757.4, 0.298816
757.467, 0.298864
757.533, 0.298912
757.6, 0.29896
757.667, 0.299008
757.733, 0.299056
757.8, 0.299104
757.867, 0.299152
757.933, 0.299199
758, 0.299247
758.067, 0.299294
758.133, 0.299342
758.2, 0.299389
758.267, 0.299436
758.333, 0.299483
758.4, 0.29953
758.467, 0.299577
758.533, 0.299623
758.6, 0.299669
758.667, 0.299716
758.733, 0.299762
758.8, 0.299807
758.867, 0.299853
758.933, 0.299898
759, 0.299943
759.067, 0.299988
759.133, 0.300033
759.2, 0.300077
759.267, 0.300121
759.333, 0.300165
759.4, 0.300209
759.467, 0.300252
759.533, 0.300296
759.6, 0.300338
759.667, 0.300381
759.733, 0.300423
759.8, 0.300465
759.867, 0.300507
759.933, 0.300548
760, 0.300589



